#!/bin/bash
gmt gmtset PS_MEDIA letter
gmt gmtset PROJ_LENGTH_UNIT cm
gmt gmtset PS_PAGE_ORIENTATION portrait
psfile=mangyshlak4.1_tt6_local_regional.ps
projection=-JX18/12
region=-R0/30/0/70
gmt psbasemap $region $projection -Bxa5f1+l'Epicentral Distance (deg)' -Bya10f1+l'Reduced Travel Time (s)' -BWeSn+t'Local-Regional mangyshlak4.1' -K > $psfile
# Reduction velocity
gmt pstext -: -R $projection -F+f12p,Helvetica-Bold,black+a0.+jBR -K -O << END >> $psfile
     2.000    27.500 Inverse reduction velocity: 11.67 sec/deg
END
gmt psxy -: -R $projection -Wthick,black -K -O << END >> $psfile
    44.098    14.500
    43.820    15.000
    43.539    15.500
    43.256    16.000
    42.967    16.500
    42.672    17.000
    42.368    17.500
    42.055    18.000
    41.729    18.500
    41.390    19.000
    41.034    19.500
    40.659    20.000
    40.264    20.500
    39.845    21.000
    39.400    21.500
    38.928    22.000
    38.426    22.500
    37.893    23.000
    37.327    23.500
    36.188    24.000
    34.917    24.500
    33.637    25.000
    32.346    25.500
    31.044    26.000
    29.731    26.500
    28.406    27.000
    27.064    27.500
    25.703    28.000
    24.326    28.500
    22.937    29.000
    21.539    29.500
    20.133    30.000
END
gmt psxy -: -R $projection -Wthick,green -K -O << END >> $psfile
     9.571     1.000
    10.613     1.500
    11.655     2.000
    12.696     2.500
    13.737     3.000
    14.777     3.500
    15.816     4.000
    16.855     4.500
    17.892     5.000
    18.927     5.500
    19.962     6.000
    20.994     6.500
    22.025     7.000
    23.054     7.500
    24.081     8.000
    25.105     8.500
    26.127     9.000
    27.147     9.500
    28.163    10.000
    29.177    10.500
    30.188    11.000
    31.196    11.500
    32.200    12.000
    33.201    12.500
    34.198    13.000
    35.191    13.500
    36.180    14.000
    37.165    14.500
    38.146    15.000
    38.943    15.500
    39.617    16.000
    40.206    16.500
    40.702    17.000
    41.123    17.500
    41.480    18.000
    41.778    18.500
    42.018    19.000
    42.200    19.500
    42.323    20.000
    42.388    20.500
    42.392    21.000
END
gmt psxy -: -R $projection -Wthick,blue -K -O << END >> $psfile
     8.494     1.000
    11.186     1.500
    13.877     2.000
    16.568     2.500
    19.258     3.000
    21.948     3.500
    24.636     4.000
    27.324     4.500
    30.010     5.000
    32.695     5.500
    35.378     6.000
END
gmt psxy -: -R $projection -Wthick,red -K -O << END >> $psfile
     3.750     0.500
     7.501     1.000
    11.251     1.500
    15.000     2.000
    18.749     2.500
    22.497     3.000
    26.244     3.500
    29.989     4.000
    33.733     4.500
    37.475     5.000
    41.216     5.500
    44.954     6.000
END
gmt psxy -: -R $projection -Wthick,green -K -O << END >> $psfile
    24.348     1.000
    30.855     1.500
    37.362     2.000
    43.867     2.500
    50.371     3.000
    56.873     3.500
    63.373     4.000
    69.871     4.500
    76.365     5.000
    82.856     5.500
    89.344     6.000
    95.826     6.500
   102.305     7.000
   108.778     7.500
   115.245     8.000
   121.707     8.500
   128.162     9.000
   134.611     9.500
   141.052    10.000
   147.486    10.500
   153.911    11.000
   160.329    11.500
   166.737    12.000
   173.136    12.500
   179.526    13.000
   185.905    13.500
   192.274    14.000
   198.632    14.500
   204.979    15.000
   211.314    15.500
   217.637    16.000
   223.947    16.500
   230.246    17.000
   236.532    17.500
   242.807    18.000
   249.069    18.500
   255.318    19.000
   261.553    19.500
   267.775    20.000
   273.983    20.500
   280.176    21.000
   286.354    21.500
   292.516    22.000
   298.662    22.500
   304.792    23.000
   310.906    23.500
   317.002    24.000
   323.081    24.500
END
gmt psxy -: -R $projection -Wthick,blue -K -O << END >> $psfile
    22.190     1.000
    30.751     1.500
    39.311     2.000
    47.870     2.500
    56.428     3.000
    64.985     3.500
    73.541     4.000
END
gmt psxy -: -R $projection -Wthick,red -K -O << END >> $psfile
    10.233     0.500
    20.466     1.000
    30.699     1.500
    40.930     2.000
    51.160     2.500
    61.389     3.000
    71.616     3.500
    81.840     4.000
END
gmt psxy -: -R $projection -Sc -Wthin,cyan -K -O << END >> $psfile
   105.984     6.778     0.150
    52.087     7.678     0.150
   134.522     9.046     0.150
   291.190    14.473     0.150
   325.165    16.274     0.150
    49.018    15.610     0.150
   250.652    18.461     0.150
   430.862    21.013     0.150
   292.295    22.861     0.150
   299.912    23.597     0.150
   256.731    17.768     0.150
    68.183    24.413     0.150
   296.594    24.550     0.150
   301.620    25.404     0.150
    71.756    26.335     0.150
    67.736    26.851     0.150
   217.133    27.931     0.150
    70.870    29.325     0.150
   206.482    29.529     0.150
    44.688     5.613     0.150
   144.380     7.696     0.150
    55.795     8.466     0.150
   208.949    10.989     0.150
   242.458    11.802     0.150
   267.687    13.454     0.150
   282.407    13.735     0.150
   305.904    15.791     0.150
   324.596    16.246     0.150
   265.429    20.425     0.150
   276.625    21.728     0.150
   465.510    22.852     0.150
   204.631    14.358     0.150
   251.503    17.797     0.150
    54.240    18.505     0.150
   289.456    19.943     0.150
   298.877    23.506     0.150
   297.047    24.519     0.150
   339.532    24.478     0.150
   303.129    25.369     0.150
    72.266    26.814     0.150
    83.290    28.355     0.150
   216.290    28.355     0.150
    37.140     5.154     0.150
    70.967     9.967     0.150
   224.044    10.989     0.150
   267.069    13.300     0.150
   321.707    15.362     0.150
    93.957    16.309     0.150
   325.957    16.309     0.150
   267.449    20.500     0.150
   280.520    21.659     0.150
   276.035    21.786     0.150
   277.035    21.786     0.150
   537.443    27.193     0.150
   340.657    24.475     0.150
   476.657    24.475     0.150
   297.436    24.580     0.150
   300.614    24.993     0.150
   304.608    25.422     0.150
    64.183    26.401     0.150
    69.486    26.889     0.150
    69.166    26.917     0.150
   202.639    29.790     0.150
END
gmt psxy -: -R $projection -Sx -Wthin,black -K -O << END >> $psfile
    38.423    20.434     0.200
    38.862    21.013     0.200
    37.101    21.593     0.200
    39.474    21.389     0.200
    36.156    21.759     0.200
    36.957    21.759     0.200
    37.125    21.762     0.200
    37.161    22.050     0.200
    36.739    22.678     0.200
    36.096    22.861     0.200
    35.713    23.597     0.200
    28.639    26.345     0.200
    27.800    27.274     0.200
    42.731    17.768     0.200
    40.016    19.158     0.200
    40.666    19.702     0.200
    39.282    19.778     0.200
    38.313    19.946     0.200
    39.224    20.554     0.200
    39.590    21.122     0.200
    40.571    21.210     0.200
    37.548    21.726     0.200
    37.987    21.774     0.200
    36.832    23.287     0.200
    36.970    23.489     0.200
    34.563    24.158     0.200
    35.240    24.400     0.200
    34.083    24.413     0.200
    32.395    24.550     0.200
    30.020    25.404     0.200
    29.756    26.335     0.200
    28.335    26.851     0.200
    24.554    27.492     0.200
    25.150    27.895     0.200
    24.933    27.931     0.200
    23.445    27.973     0.200
    24.619    28.361     0.200
    23.437    28.582     0.200
    22.233    28.822     0.200
    21.974    28.947     0.200
    20.870    29.325     0.200
    20.283    29.529     0.200
    20.345    29.729     0.200
    20.944    29.918     0.200
    37.424    18.455     0.200
    39.429    20.425     0.200
    39.069    21.004     0.200
    38.587    21.354     0.200
    36.625    21.728     0.200
    38.125    21.728     0.200
    39.301    21.584     0.200
    37.669    21.750     0.200
    38.473    22.041     0.200
    36.419    22.645     0.200
    36.720    22.645     0.200
    35.209    22.852     0.200
    36.836    23.569     0.200
    28.197    26.306     0.200
    27.747    27.244     0.200
    41.503    17.797     0.200
    40.240    18.505     0.200
    39.622    19.166     0.200
    40.619    19.218     0.200
    36.809    19.313     0.200
    39.456    19.943     0.200
    39.020    21.137     0.200
    39.980    21.183     0.200
    40.295    21.242     0.200
    38.631    21.539     0.200
    37.750    21.743     0.200
    37.769    21.784     0.200
    37.097    23.316     0.200
    36.877    23.506     0.200
    35.987    23.436     0.200
    35.336    23.552     0.200
    35.487    24.019     0.200
    34.195    24.147     0.200
    34.678    24.123     0.200
    34.028    24.401     0.200
    34.106    24.403     0.200
    32.647    24.519     0.200
    31.129    25.369     0.200
    33.451    25.547     0.200
    31.574    25.554     0.200
    30.127    25.712     0.200
    27.464    26.326     0.200
    29.185    26.299     0.200
    26.771    26.591     0.200
    28.465    26.814     0.200
    28.146    26.842     0.200
    26.539    27.391     0.200
    24.675    27.465     0.200
    24.569    27.894     0.200
    25.597    27.883     0.200
    24.290    28.355     0.200
    23.466    28.571     0.200
    22.203    28.808     0.200
    22.141    28.942     0.200
    21.016    29.304     0.200
    21.668    29.436     0.200
    20.635    29.490     0.200
    20.206    29.716     0.200
    20.505    29.947     0.200
    19.938    29.902     0.200
    18.351    29.926     0.200
    37.539    18.530     0.200
    39.449    20.500     0.200
    37.289    21.079     0.200
    38.655    21.313     0.200
    37.520    21.659     0.200
    37.035    21.786     0.200
    38.035    21.786     0.200
    37.897    21.824     0.200
    36.653    22.599     0.200
    37.355    22.599     0.200
    34.531    22.927     0.200
    28.787    26.349     0.200
    27.443    27.193     0.200
    39.503    18.576     0.200
    40.271    19.238     0.200
    40.168    19.290     0.200
    38.025    19.388     0.200
    41.797    19.648     0.200
    37.658    19.848     0.200
    40.729    19.970     0.200
    39.670    20.018     0.200
    40.670    20.018     0.200
    40.779    20.026     0.200
    40.548    20.629     0.200
    38.814    21.206     0.200
    39.195    21.259     0.200
    39.844    21.289     0.200
    37.530    21.856     0.200
    36.375    23.368     0.200
    37.315    23.433     0.200
    37.215    23.862     0.200
    35.007    24.094     0.200
    33.619    24.221     0.200
    34.945    24.194     0.200
    33.657    24.475     0.200
    35.332    24.477     0.200
    32.436    24.580     0.200
    33.750    24.553     0.200
    34.217    24.770     0.200
    32.515    24.993     0.200
    31.708    25.422     0.200
    31.216    25.627     0.200
    28.584    26.401     0.200
    28.938    26.371     0.200
    27.356    26.643     0.200
    28.585    26.889     0.200
    28.266    26.917     0.200
    25.753    27.466     0.200
    24.325    27.529     0.200
    24.503    27.942     0.200
    25.224    27.957     0.200
    24.505    28.430     0.200
    23.091    28.645     0.200
    20.957    28.691     0.200
    22.241    28.881     0.200
    21.657    29.017     0.200
    20.496    29.373     0.200
    19.012    29.501     0.200
    20.516    29.534     0.200
    20.139    29.790     0.200
END
gmt psxy -: -R $projection -Sx -Wthin,green -K -O << END >> $psfile
    18.209     4.960     0.200
    18.350     5.376     0.200
    20.151     5.581     0.200
    20.574     6.497     0.200
    20.984     6.778     0.200
    20.316     7.067     0.200
    22.087     7.678     0.200
    22.489     7.678     0.200
    24.100     8.054     0.200
    22.630     8.214     0.200
    22.747     8.461     0.200
    25.214     8.515     0.200
    25.922     9.046     0.200
    23.982    10.035     0.200
    27.324    10.991     0.200
    29.857    11.794     0.200
    31.672    12.461     0.200
    31.219    12.628     0.200
    30.565    12.813     0.200
    31.739    12.806     0.200
    31.498    13.092     0.200
    30.563    13.498     0.200
    31.960    13.773     0.200
    34.826    13.904     0.200
    34.038    14.212     0.200
    34.190    14.473     0.200
    33.237    14.623     0.200
    32.198    14.815     0.200
    35.049    14.811     0.200
    35.249    14.811     0.200
    39.065    15.435     0.200
    34.179    16.188     0.200
    33.165    16.274     0.200
    34.165    16.274     0.200
    36.673    16.282     0.200
    39.488    16.075     0.200
    38.528    17.083     0.200
    38.973    17.276     0.200
    24.135     8.394     0.200
    23.269     8.511     0.200
    25.649     8.624     0.200
    32.783    11.166     0.200
    36.251    14.313     0.200
    34.302    14.437     0.200
    37.462    15.666     0.200
    37.151    16.139     0.200
    38.966    16.728     0.200
    39.527    17.615     0.200
    40.614    18.258     0.200
    43.044    19.567     0.200
    40.849    21.186     0.200
    17.834     5.000     0.200
    18.511     5.114     0.200
    18.287     5.390     0.200
    20.688     5.613     0.200
    20.955     6.533     0.200
    21.282     6.590     0.200
    20.716     7.093     0.200
    22.234     7.708     0.200
    22.380     7.696     0.200
    24.015     8.070     0.200
    22.785     8.235     0.200
    22.295     8.466     0.200
    24.029     8.540     0.200
    25.188     8.578     0.200
    25.841     9.062     0.200
    22.996    10.042     0.200
    26.949    10.989     0.200
    28.808    10.915     0.200
    29.458    11.802     0.200
    31.267    12.461     0.200
    31.461    12.633     0.200
    30.060    12.822     0.200
    31.775    12.803     0.200
    32.012    13.091     0.200
    30.386    13.454     0.200
    32.106    13.375     0.200
    31.907    13.735     0.200
    31.932    13.904     0.200
    33.332    14.624     0.200
    38.735    15.437     0.200
    35.583    15.725     0.200
    35.904    15.791     0.200
    34.132    16.157     0.200
    33.596    16.246     0.200
    36.539    16.063     0.200
    36.624    16.270     0.200
    39.775    17.071     0.200
    21.841     8.248     0.200
    24.628     8.429     0.200
    24.753     8.555     0.200
    25.748     8.658     0.200
    32.279    10.832     0.200
    34.488    14.456     0.200
    36.531    14.358     0.200
    37.748    15.676     0.200
    38.435    16.757     0.200
    40.862    16.952     0.200
    43.240    18.505     0.200
    45.005    19.639     0.200
    41.491    19.597     0.200
    41.330    20.554     0.200
    41.470    21.313     0.200
    17.359     4.963     0.200
    17.140     5.154     0.200
    18.577     5.459     0.200
    20.213     5.662     0.200
    20.333     6.482     0.200
    21.541     6.662     0.200
    21.344     7.150     0.200
    22.706     7.762     0.200
    24.609     7.684     0.200
    23.722     8.137     0.200
    23.645     8.298     0.200
    23.325     8.540     0.200
    22.936     8.599     0.200
    25.800     8.645     0.200
    26.144     9.129     0.200
    23.967     9.967     0.200
    27.914    10.914     0.200
    29.044    10.989     0.200
    29.427    11.727     0.200
    31.986    12.536     0.200
    30.429    12.747     0.200
    32.138    12.729     0.200
    31.680    13.017     0.200
    30.239    13.457     0.200
    32.569    13.300     0.200
    31.789    13.701     0.200
    33.149    13.979     0.200
    34.317    14.144     0.200
    34.507    14.891     0.200
    35.571    14.885     0.200
    37.207    15.362     0.200
    35.848    15.719     0.200
    35.832    16.200     0.200
    38.548    15.993     0.200
    38.386    17.001     0.200
    24.728     8.377     0.200
    24.905     8.559     0.200
    26.247     8.701     0.200
    34.512    14.385     0.200
    36.153    14.347     0.200
    37.007    15.748     0.200
    40.969    17.850     0.200
END
gmt psxy -: -R $projection -Sx -Wthin,blue -K -O << END >> $psfile
END
gmt psxy -: -R $projection -Sx -Wthin,red -K -O << END >> $psfile
    60.325     8.540     0.200
END
gmt psxy -: -R $projection -Sx -Wthin,green -K -O << END >> $psfile
   110.087     7.678     0.200
   122.630     8.214     0.200
   145.824    10.991     0.200
   173.818    12.628     0.200
   180.563    13.498     0.200
   198.237    14.623     0.200
   218.665    16.274     0.200
   281.474    21.389     0.200
   285.125    21.762     0.200
    87.955     6.533     0.200
    99.716     7.093     0.200
   106.035     7.708     0.200
   114.380     7.696     0.200
   127.788     8.578     0.200
   139.996    10.042     0.200
   182.187    13.454     0.200
   188.106    13.375     0.200
   193.708    13.735     0.200
   191.531    14.624     0.200
   218.596    16.246     0.200
   281.487    21.354     0.200
   285.625    21.728     0.200
   278.330    20.554     0.200
   118.325     8.540     0.200
   122.936     8.599     0.200
   176.936    12.729     0.200
   179.239    13.457     0.200
   216.957    16.309     0.200
   277.356    21.313     0.200
END
gmt psxy -: -R $projection -Sx -Wthin,blue -K -O << END >> $psfile
END
gmt psxy -: -R $projection -Sx -Wthin,red -K -O << END >> $psfile
   173.214     8.515     0.200
   174.936     8.599     0.200
END
gmt psxy -: -R $projection -Sc -Wthin,red -O << END >> $psfile
END
